59
Vdd[mV] Temp[C] Leakage[nA] FwdLatUp[ns] FwdLatDn[ns] BwdLatUp[ns] BwdLatDn[ns] CycTime[ns] EpC[fJ]
250 -50 0.0114242 32.3413 356.931 85.4895 381.001 532.233 2.11474
275 -50 0.0136754 10.3886 149.941 27.4123 165.053 213.835 3.19948
300 -50 0.0164951 3.53686 67.2154 9.31552 76.1435 92.8339 4.85365
325 -50 0.0200523 1.37087 30.7208 3.60105 35.6205 42.0522 6.69356
350 -50 0.0244291 0.63891 13.4885 1.6711 15.9162 18.9213 7.60076
375 -50 0.0295951 0.355568 5.63796 0.924832 6.66612 8.32247 7.07192
400 -50 0.035513 0.227018 2.36441 0.586771 2.70622 3.7529 5.89106
425 -50 0.0421654 0.160605 1.09792 0.41191 1.21263 1.95153 5.08958
450 -50 0.049574 0.122049 0.583011 0.310749 0.63655 1.19879 4.78933
475 -50 0.0577765 0.0974354 0.339696 0.246693 0.381795 0.834533 4.76402
500 -50 0.0668088 0.0807204 0.21569 0.203608 0.272493 0.650049 4.8959
525 -50 0.0767171 0.0690204 0.147673 0.173317 0.208901 0.532952 5.14359
550 -50 0.0875274 0.0604095 0.107367 0.151065 0.168106 0.45302 5.46864
575 -50 0.0992533 0.0538693 0.0810168 0.134187 0.140306 0.395505 5.84741
600 -50 0.111899 0.0487551 0.0631396 0.120997 0.120444 0.352404 6.26934
625 -50 0.125465 0.0446606 0.0504978 0.110461 0.105725 0.319202 6.72974
650 -50 0.139937 0.0413274 0.0413088 0.101905 0.0944578 0.292886 7.22533
675 -50 0.155306 0.0385714 0.0342493 0.0948185 0.0855904 0.271558 7.75367
700 -50 0.171551 0.0362536 0.0288219 0.0888789 0.0784265 0.254035 8.31343
725 -50 0.188656 0.0342935 0.0245459 0.0838513 0.0725516 0.239374 8.90566
750 -50 0.206607 0.0326183 0.0210672 0.0795468 0.0676751 0.226989 9.53143
775 -50 0.225393 0.0311729 0.0182014 0.0758303 0.063584 0.216486 10.193
800 -50 0.245016 0.0299233 0.0156995 0.0726115 0.0601279 0.207479 10.8916
850 -50 0.286842 0.0278848 0.0120059 0.0673541 0.054632 0.192945 12.4069
900 -50 0.332727 0.026317 0.00909578 0.0633072 0.0505285 0.182054 14.0916
950 -50 0.384307 0.0251057 0.00685137 0.0601754 0.0474021 0.173768 15.9591
125 -25 0.0933971 2099.55 2803.83 5314.61 4837.96 13993.7 0.259627
175 -25 0.0215241 303.85 526.284 776.698 773.129 2096.82 0.490632
200 -25 0.0233318 112.462 215.624 286.591 298.359 784.367 0.659025
225 -25 0.0253696 41.1557 88.1753 104.483 114.791 291.234 0.867504
250 -25 0.0277702 15.0484 37.001 38.1089 44.9269 109.139 1.1263
275 -25 0.0306727 5.62135 16.4188 14.2096 18.5566 42.5387 1.4551
300 -25 0.0342518 2.25211 8.04492 5.67204 8.78448 18.4249 1.87664
325 -25 0.0386644 0.994359 4.39054 2.53736 4.7839 9.16753 2.39133
350 -25 0.0439003 0.516975 2.56977 1.32577 2.8009 5.11466 2.91224
375 -25 0.0499094 0.310696 1.54358 0.796905 1.68116 3.08441 3.337
400 -25 0.0566492 0.209102 0.943663 0.534562 1.02764 1.97688 3.64624
425 -25 0.064122 0.152626 0.58975 0.388761 0.646459 1.34371 3.88898
450 -25 0.0723687 0.118023 0.380733 0.299783 0.437671 0.982935 4.12139
475 -25 0.0814351 0.0955755 0.256438 0.241941 0.32158 0.76599 4.37454
500 -25 0.0913722 0.0802004 0.180648 0.202172 0.247859 0.622586 4.66797
525 -25 0.102228 0.069135 0.132688 0.173572 0.198674 0.52324 5.00442
550 -25 0.114035 0.060909 0.100823 0.152266 0.164494 0.451641 5.37935
575 -25 0.126805 0.0545635 0.0787074 0.135866 0.139894 0.398238 5.78937
600 -25 0.140554 0.0495412 0.0629904 0.122933 0.121621 0.357271 6.23256
625 -25 0.155283 0.0455149 0.0514048 0.112532 0.107685 0.325059 6.70869
650 -25 0.170992 0.0422151 0.0425187 0.10403 0.0967961 0.299186 7.21706
675 -25 0.187674 0.0394724 0.0357999 0.0969603 0.0880726 0.278059 7.75673
700 -25 0.205321 0.0371579 0.0303974 0.0910137 0.0809657 0.260556 8.32802
725 -25 0.223938 0.0351981 0.0261079 0.0859618 0.0750812 0.245825 8.93204
750 -25 0.243506 0.0335138 0.0226391 0.0816259 0.0701528 0.233371 9.56988
775 -25 0.264031 0.0320603 0.0197419 0.0778842 0.0659987 0.222713 10.244
800 -25 0.285547 0.0308001 0.0172063 0.07463 0.062467 0.213587 10.9557
850 -25 0.331656 0.0287394 0.0132806 0.0693125 0.0568257 0.198791 12.4987
900 -25 0.382795 0.0271491 0.0103783 0.0652091 0.0525778 0.187642 14.211
950 -25 0.441166 0.0259161 0.00803893 0.0620288 0.0493308 0.179152 16.1048
100 0 0.38948 1445.57 901.671 3485.21 2517.64 8369.96 0.208359
125 0 0.0915399 635.506 479.254 1572.03 1146.92 3762 0.262349
150 0 0.0950844 273.884 228.507 681.656 502.338 1627.56 0.347836
175 0 0.0991004 115.661 103.704 287.606 213.957 685.373 0.464231
200 0 0.103276 48.0226 46.0704 118.976 89.7005 283.568 0.610372
225 0 0.107848 19.7254 20.4965 48.7057 37.6026 116.674 0.786363
250 0 0.112891 8.09617 9.38547 19.968 16.1029 48.5416 0.994548
275 0 0.118584 3.39151 4.61861 8.39496 7.32271 21.0789 1.2415
300 0 0.125131 1.51102 2.54851 3.77396 3.70549 10.0036 1.53887
325 0 0.132568 0.752234 1.59613 1.89734 2.1265 5.3594 1.89516
350 0 0.141056 0.427104 1.08783 1.08528 1.35096 3.23185 2.29556
375 0 0.150324 0.272866 0.764057 0.695584 0.917656 2.13994 2.70357
400 0 0.160403 0.191107 0.540675 0.48727 0.651357 1.51865 3.09113
425 0 0.171303 0.143476 0.38572 0.365181 0.478744 1.13611 3.45322
450 0 0.183025 0.113455 0.2789 0.287958 0.363325 0.887127 3.80113
475 0 0.195643 0.0934016 0.205595 0.236152 0.284343 0.718137 4.15013
500 0 0.209194 0.0792785 0.155076 0.199625 0.22907 0.599223 4.51325
525 0 0.22375 0.0689106 0.119583 0.172838 0.189485 0.512839 4.89674
550 0 0.239354 0.0610807 0.0943704 0.152584 0.16045 0.448313 5.30419
575 0 0.256021 0.0549789 0.0757855 0.136792 0.13867 0.398903 5.7383
600 0 0.273837 0.0501245 0.0619372 0.124251 0.121968 0.360115 6.20024
625 0 0.29276 0.0461906 0.0514259 0.114079 0.108909 0.329175 6.69193
650 0 0.312825 0.0429505 0.0432681 0.105714 0.0984863 0.30405 7.21384
675 0 0.334021 0.0402443 0.0368902 0.0987199 0.0900207 0.283313 7.7662
700 0 0.356421 0.0379544 0.0316566 0.0928154 0.0830488 0.266008 8.35006
725 0 0.379953 0.0360038 0.0274461 0.0877828 0.0772219 0.251378 8.96693
750 0 0.404657 0.0343315 0.0239564 0.0834588 0.0723117 0.238914 9.61848
775 0 0.430557 0.032877 0.0210785 0.0797128 0.0681356 0.228245 10.3064
800 0 0.457702 0.0316146 0.0185268 0.0764555 0.0645711 0.219024 11.0319
850 0 0.515966 0.0295468 0.0145141 0.0711093 0.0588368 0.20412 12.6038
900 0 0.580884 0.027942 0.0114316 0.0669786 0.0544868 0.192782 14.3453
950 0 0.655285 0.0266922 0.00905253 0.0637641 0.0511381 0.184164 16.2681
100 25 0.393447 485.576 189.573 1149.27 720.558 2600.15 0.233745
125 25 0.397967 234.31 113.541 570.338 352.492 1272.5 0.280418
150 25 0.408595 111.193 58.9329 272.274 166.864 601.611 0.357756
175 25 0.421016 51.7118 28.9693 126.473 77.1512 277.424 0.466165
200 25 0.434769 23.6576 14.005 57.6501 35.2896 126.029 0.604116
225 25 0.449188 10.6927 6.834 25.9846 16.2176 57.0459 0.77
250 25 0.464429 4.8234 3.48882 11.7322 7.69145 26.2327 0.963247
275 25 0.480638 2.22283 1.94439 5.44033 3.90898 12.6533 1.18658
300 25 0.497899 1.09034 1.21519 2.69882 2.19936 6.65378 1.44886
325 25 0.516312 0.591948 0.851736 1.4838 1.37726 3.88397 1.75632
350 25 0.535736 0.359752 0.631534 0.910263 0.940043 2.50918 2.10381
375 25 0.556202 0.24159 0.479407 0.614103 0.680798 1.75734 2.47669
400 25 0.577697 0.175462 0.367749 0.446452 0.513114 1.30671 2.85928
425 25 0.600274 0.135225 0.283288 0.343623 0.398209 1.01652 3.24182
450 25 0.624053 0.109025 0.219453 0.276265 0.31672 0.819367 3.62356
475 25 0.649099 0.0909852 0.171588 0.229778 0.25761 0.680031 4.00914
500 25 0.675492 0.0780463 0.135728 0.196306 0.213984 0.578297 4.40445
525 25 0.703323 0.0684287 0.108737 0.17138 0.181226 0.502077 4.81508
550 25 0.7327 0.0610374 0.0882756 0.152227 0.156261 0.443682 5.24529
575 25 0.763497 0.0552001 0.0726504 0.137143 0.13692 0.39793 5.69818
600 25 0.795707 0.0505339 0.0606824 0.125056 0.121689 0.361468 6.17711
625 25 0.829588 0.0467213 0.0512164 0.115175 0.109515 0.331971 6.68361
650 25 0.864987 0.0435596 0.043635 0.107003 0.099632 0.307697 7.21942
675 25 0.901928 0.0409112 0.0375517 0.100141 0.0914936 0.287525 7.78526
700 25 0.940441 0.0386626 0.0325974 0.0943209 0.0847189 0.270532 8.38289
725 25 0.980713 0.0367388 0.0285097 0.0893479 0.0790075 0.256109 9.01362
750 25 1.0226 0.0350867 0.0251809 0.085063 0.0741591 0.243749 9.67915
775 25 1.06625 0.0336372 0.0221731 0.0813389 0.0700113 0.233139 10.381
800 25 1.11175 0.0323837 0.0196802 0.0781006 0.0664405 0.223946 11.1219
850 25 1.2084 0.0303135 0.0156276 0.0727595 0.0606597 0.208966 12.7237
900 25 1.31521 0.0287031 0.0125577 0.0686166 0.0562426 0.197546 14.4957
950 25 1.4354 0.0274413 0.0099169 0.0653852 0.0528165 0.188807 16.4475
100 50 1.4342 192.618 46.3352 447.367 250.69 966.191 0.268451
125 50 1.4378 100.411 33.5313 241.686 130.955 510.561 0.309298
150 50 1.46647 51.733 19.216 125.41 66.5355 261.053 0.379778
175 50 1.5043 26.1279 10.2559 63.2887 33.1782 130.449 0.48192
200 50 1.54717 12.9625 5.37931 31.3001 16.4513 64.3218 0.614392
225 50 1.59219 6.3349 2.87463 15.2737 8.26157 31.6768 0.774068
250 50 1.63854 3.08414 1.62835 7.45897 4.32029 15.9072 0.958009
275 50 1.68777 1.53828 1.01066 3.75346 2.42788 8.40661 1.16774
300 50 1.73817 0.819048 0.704443 2.02247 1.49461 4.81108 1.4113
325 50 1.79027 0.478477 0.536639 1.19677 1.00387 3.01786 1.69532
350 50 1.84377 0.308312 0.424643 0.778007 0.723354 2.06183 2.01821
375 50 1.89958 0.216046 0.340893 0.548003 0.547844 1.50745 2.36992
400 50 1.95686 0.161813 0.275807 0.411049 0.429551 1.16034 2.74102
425 50 2.016 0.127598 0.222876 0.32373 0.345485 0.928345 3.1237
450 50 2.077 0.104638 0.180966 0.264809 0.283631 0.765828 3.51518
475 50 2.14034 0.0885022 0.14707 0.223139 0.237078 0.647714 3.91587
500 50 2.20577 0.0766842 0.1204 0.192565 0.201443 0.559145 4.32833
525 50 2.27352 0.0677439 0.0993099 0.169406 0.173796 0.491272 4.75628
550 50 2.3437 0.0607932 0.0826568 0.151375 0.152093 0.438157 5.2032
575 50 2.41638 0.0552739 0.0694703 0.137064 0.134851 0.395849 5.67217
600 50 2.49131 0.0507965 0.058943 0.125474 0.120971 0.361678 6.16598
625 50 2.56958 0.0471295 0.0504719 0.11594 0.109666 0.333627 6.68677
650 50 2.65024 0.0440735 0.0436366 0.108012 0.100339 0.310364 7.23657
675 50 2.7337 0.041492 0.037992 0.101309 0.0925701 0.290815 7.81647
700 50 2.82002 0.0392969 0.0332547 0.0956139 0.0860323 0.274272 8.42829
725 50 2.90913 0.037411 0.0293241 0.0907219 0.0804795 0.260132 9.07348
750 50 3.00158 0.0357725 0.0260525 0.0864946 0.075727 0.24796 9.75389
775 50 3.09689 0.0343448 0.0231276 0.0828125 0.0716375 0.237451 10.4711
800 50 3.19571 0.0331029 0.0206576 0.0795982 0.0680869 0.228312 11.2267
850 50 3.40357 0.031041 0.016596 0.0742862 0.0623022 0.213399 12.8593
900 50 3.6285 0.0294331 0.0133703 0.0701527 0.0578455 0.201923 14.662
950 50 3.87516 0.0281669 0.0107225 0.0669176 0.0543633 0.193073 16.6442
125 75 4.42928 48.3138 11.2831 115.303 56.2267 233.429 0.34807
175 75 4.59265 14.4671 4.29933 34.8916 16.261 68.63 0.508258
200 75 4.71124 7.6743 2.44457 18.472 8.68822 36.3542 0.634626
225 75 4.83661 3.99626 1.42555 9.62058 4.74038 19.2659 0.786978
250 75 4.96728 2.07495 0.886674 5.01837 2.71049 10.4468 0.961761
275 75 5.10193 1.10947 0.602996 2.71064 1.66006 5.97117 1.16175
300 75 5.23982 0.634302 0.462133 1.569 1.09899 3.66896 1.39441
325 75 5.38153 0.395217 0.372486 0.988197 0.781385 2.44445 1.66525
350 75 5.52538 0.26757 0.309391 0.674636 0.587953 1.74885 1.97293
375 75 5.67463 0.194691 0.25966 0.492843 0.461083 1.32503 2.31134
400 75 5.82655 0.149898 0.217868 0.379957 0.372447 1.04856 2.67296
425 75 5.98228 0.120631 0.182641 0.30544 0.3076 0.858255 3.0526
450 75 6.14204 0.100472 0.153094 0.253753 0.25853 0.721232 3.44699
475 75 6.30603 0.0860001 0.128436 0.216408 0.220575 0.61931 3.85515
500 75 6.47444 0.0752144 0.108024 0.188487 0.190766 0.541351 4.27833
525 75 6.64634 0.0669433 0.0912731 0.167042 0.167076 0.480437 4.71873
550 75 6.82529 0.0604421 0.0775762 0.150164 0.148039 0.432051 5.1789
575 75 7.00807 0.0552293 0.0663724 0.136625 0.132589 0.392902 5.66162
600 75 7.19464 0.0509688 0.0571862 0.125571 0.119931 0.360916 6.16942
625 75 7.38912 0.0474523 0.0496993 0.116424 0.109451 0.334352 6.7042
650 75 7.58769 0.0445083 0.0433944 0.10876 0.100694 0.312133 7.26806
675 75 7.79182 0.0420022 0.038048 0.102255 0.0933215 0.293344 7.86247
700 75 8.00166 0.03986 0.033659 0.0966982 0.0870448 0.277278 8.48846
725 75 8.21695 0.0380185 0.029988 0.0919208 0.0816716 0.263505 9.14851
750 75 8.43914 0.03641 0.026678 0.0877665 0.0770448 0.25162 9.84422
775 75 8.66716 0.0350076 0.023893 0.0841418 0.0730274 0.241272 10.577
800 75 8.90166 0.0337784 0.0214621 0.0809728 0.0695257 0.232252 11.3483
850 75 9.39126 0.0317403 0.0174124 0.0757149 0.0637706 0.217434 13.0122
900 75 9.91284 0.0301347 0.0141561 0.0715996 0.059295 0.205921 14.8455
950 75 10.4734 0.0288627 0.0114594 0.0683618 0.0557709 0.197023 16.8578
125 100 11.9668 25.4721 3.86628 60.2541 27.0663 118.178 0.396554
175 100 12.3043 8.58187 2.0369 20.6791 8.83933 39.3555 0.544168
200 100 12.5844 4.8063 1.25995 11.5786 5.06367 22.1872 0.662318
225 100 12.8924 2.63769 0.797887 6.36499 2.98143 12.5367 0.805062
250 100 13.216 1.45112 0.537885 3.52179 1.84306 7.27746 0.97064
275 100 13.548 0.827457 0.402503 2.02947 1.21286 4.44755 1.16326
300 100 13.8906 0.504245 0.327905 1.25112 0.852138 2.90779 1.38932
325 100 14.2409 0.332042 0.276543 0.831436 0.634888 2.03734 1.65229
350 100 14.5972 0.23479 0.238608 0.591977 0.494753 1.516 1.95066
375 100 14.9608 0.176413 0.20688 0.446427 0.399228 1.1833 2.28017
400 100 15.3322 0.139239 0.178588 0.352415 0.330307 0.958673 2.63532
425 100 15.7115 0.114197 0.154041 0.288532 0.278548 0.799772 3.01206
450 100 16.0993 0.0964978 0.132497 0.243116 0.238513 0.682715 3.40747
475 100 16.4958 0.0835312 0.113876 0.209647 0.206887 0.593823 3.82063
500 100 16.8995 0.0736962 0.0979199 0.184213 0.181527 0.52464 4.25152
525 100 17.3159 0.0660657 0.0843925 0.164421 0.160957 0.469847 4.70226
550 100 17.7415 0.0600105 0.0729948 0.148669 0.144127 0.425614 5.17407
575 100 18.1765 0.0551042 0.0634035 0.135916 0.130235 0.389413 5.66944
600 100 18.6219 0.0510654 0.0554102 0.125405 0.11867 0.359464 6.19028
625 100 19.0781 0.0477001 0.0485736 0.116663 0.108974 0.334438 6.73871
650 100 19.5453 0.0448753 0.0429811 0.109295 0.100767 0.313191 7.31632
675 100 20.0238 0.0424566 0.0379191 0.103009 0.0937914 0.295204 7.92503
700 100 20.5139 0.0403786 0.0338563 0.0976203 0.0877914 0.279701 8.56608
725 100 21.0159 0.0385773 0.0302745 0.0929541 0.0826156 0.266361 9.24122
750 100 21.5303 0.0370061 0.0271706 0.0888959 0.0781217 0.254729 9.95243
775 100 22.0573 0.035637 0.024474 0.0853454 0.0742031 0.244592 10.7007
800 100 22.5941 0.0344244 0.0220989 0.0822248 0.0707639 0.235728 11.4879
850 100 23.7178 0.0324033 0.018091 0.0770326 0.0650693 0.22104 13.1831
900 100 24.901 0.0308114 0.0148276 0.0729544 0.0605989 0.209604 15.0476
950 100 26.1569 0.0295407 0.0121489 0.069725 0.0570437 0.200614 17.0897
150 125 29.1139 8.88837 1.39313 21.2932 8.66458 39.9894 0.508001
175 125 29.5493 5.35471 1.04672 12.9115 5.2282 24.1128 0.588939
200 125 30.142 3.13567 0.710547 7.5766 3.19604 14.3608 0.696661
225 125 30.8156 1.80407 0.488758 4.37279 2.01539 8.59903 0.828662
250 125 31.5332 1.04881 0.354299 2.55883 1.33239 5.30806 0.986009
275 125 32.2762 0.635391 0.288489 1.5657 0.930581 3.44088 1.17321
300 125 33.0415 0.410057 0.246091 1.02074 0.686827 2.37249 1.39515
325 125 33.8184 0.283304 0.216 0.710575 0.531403 1.73521 1.65326
350 125 34.6171 0.208113 0.191395 0.524734 0.426573 1.33484 1.94593
375 125 35.4279 0.16098 0.170218 0.406876 0.352527 1.06909 2.26953
400 125 36.2544 0.129851 0.150635 0.328082 0.29761 0.884211 2.62069
425 125 37.0972 0.108307 0.133146 0.27302 0.255339 0.749772 2.99579
450 125 37.9568 0.092743 0.116846 0.233044 0.222022 0.648698 3.39247
475 125 38.8339 0.0811215 0.102467 0.203032 0.19522 0.570643 3.80969
500 125 39.7279 0.072202 0.0897156 0.179896 0.173365 0.509049 4.24787
525 125 40.6432 0.0651668 0.0784406 0.161659 0.155362 0.459454 4.70729
550 125 41.5765 0.0595223 0.068843 0.146978 0.140387 0.419043 5.18999
575 125 42.5285 0.0549202 0.0605909 0.134986 0.127849 0.385523 5.69722
600 125 43.5034 0.0511069 0.0535268 0.125051 0.117275 0.357523 6.23087
625 125 44.4981 0.047908 0.0475438 0.116717 0.108289 0.333913 6.79269
650 125 45.5143 0.0451919 0.0422632 0.109648 0.10062 0.313783 7.38446
675 125 46.5527 0.0428601 0.037643 0.103598 0.094024 0.296536 8.00735
700 125 47.6139 0.0408523 0.0338518 0.0983875 0.0883048 0.281641 8.66351
725 125 48.6983 0.0391007 0.0304599 0.0938568 0.0833384 0.268718 9.35395
750 125 49.8004 0.0375769 0.0274974 0.0899046 0.0789973 0.257414 10.0808
775 125 50.9321 0.0362288 0.0248872 0.0864292 0.0751813 0.247502 10.8447
800 125 52.0977 0.0350374 0.0225658 0.083367 0.0718198 0.238779 11.6475
850 125 54.4935 0.0330508 0.0186224 0.0782602 0.0661981 0.22424 13.374
900 125 57.0081 0.0314673 0.0153742 0.0742174 0.0617478 0.212855 15.2689
950 125 59.6485 0.0301968 0.0126336 0.0709998 0.0581789 0.203845 17.3403
