33
Vdd[mV] Temp[C] Leakage[nA] FwdLatUp[ns] FwdLatDn[ns] BwdLatUp[ns] BwdLatDn[ns] CycTime[ns] EpC[fJ]
250 -50 0.00579958 37.6572 313.688 47.8852 321.96 436.159 0.930016
275 -50 0.00687922 12.0959 132.522 15.3669 135.204 171.953 1.41283
300 -50 0.00826959 4.11921 59.5216 5.22866 60.445 72.9463 2.13991
325 -50 0.0100866 1.59886 27.0285 2.0284 27.3907 32.2782 2.91595
350 -50 0.0123696 0.747307 11.8658 0.947067 12.0354 14.3342 3.26321
375 -50 0.0150624 0.416775 5.01329 0.527437 5.1076 6.39158 3.02211
400 -50 0.0180983 0.267409 2.12872 0.337441 2.18869 3.0085 2.5288
425 -50 0.0214435 0.189299 1.01324 0.238315 1.05535 1.63118 2.17868
450 -50 0.0250952 0.143883 0.561908 0.180617 0.593655 1.03155 2.02674
475 -50 0.0290697 0.11522 0.353336 0.144222 0.37856 0.730483 1.99668
500 -50 0.0333918 0.0959038 0.243869 0.11974 0.264661 0.559 2.03693
525 -50 0.0380873 0.0822246 0.180024 0.102424 0.197727 0.451565 2.12147
550 -50 0.0431789 0.0721696 0.1399 0.0897231 0.155277 0.379369 2.23646
575 -50 0.0486837 0.064474 0.113075 0.0800285 0.1267 0.328225 2.3747
600 -50 0.0546132 0.0584876 0.094266 0.0724575 0.106513 0.290439 2.53164
625 -50 0.0609721 0.0536765 0.0805667 0.0664295 0.0917132 0.261633 2.7054
650 -50 0.0677608 0.0497687 0.0702796 0.0615338 0.0804956 0.239038 2.89409
675 -50 0.0749775 0.0465353 0.0623536 0.0574774 0.0717833 0.220952 3.09742
700 -50 0.082616 0.0438193 0.0561084 0.0540803 0.0648748 0.206211 3.31528
725 -50 0.0906718 0.04153 0.0510903 0.0512206 0.0592824 0.194004 3.54783
750 -50 0.0991409 0.0395793 0.047007 0.0487744 0.0546972 0.183788 3.79563
775 -50 0.108022 0.0378873 0.0436376 0.0466701 0.0508888 0.175142 4.05916
800 -50 0.117318 0.0364452 0.0408206 0.0448651 0.0476778 0.167813 4.33925
850 -50 0.137203 0.0340859 0.0364331 0.0419296 0.0426103 0.156046 4.95283
900 -50 0.159156 0.0322846 0.0332233 0.0397146 0.0388485 0.147282 5.64223
950 -50 0.184069 0.0308965 0.0308217 0.0380143 0.0359946 0.140715 6.41334
125 -25 0.158571 2497.19 3780.05 3070.37 4165.93 11099.2 0.105576
175 -25 0.0113573 359.74 645.825 445.391 712.26 1706.65 0.200247
200 -25 0.0122353 133.001 254.958 164.336 280.266 644.575 0.270119
225 -25 0.0132481 48.6321 100.159 59.9449 109.526 241.614 0.357105
250 -25 0.0144444 17.7504 40.0449 21.8584 43.49 91.5283 0.46522
275 -25 0.015915 6.60571 16.8399 8.14167 18.1374 36.0978 0.602024
300 -25 0.0177826 2.61597 7.82875 3.23619 8.35309 15.5819 0.778155
325 -25 0.0201236 1.16902 4.1228 1.45501 4.36355 7.68402 0.993743
350 -25 0.0229229 0.609078 2.38155 0.762037 2.50983 4.27387 1.21549
375 -25 0.0261029 0.366121 1.44185 0.459341 1.52001 2.5963 1.39794
400 -25 0.0296038 0.24628 0.902634 0.309187 0.955497 1.68707 1.529
425 -25 0.033402 0.179953 0.587969 0.225688 0.626684 1.16579 1.62803
450 -25 0.0375071 0.139777 0.401208 0.175034 0.431216 0.85315 1.71868
475 -25 0.0419377 0.113594 0.287277 0.141982 0.311552 0.656795 1.81589
500 -25 0.0467285 0.0956027 0.214947 0.119242 0.235279 0.527729 1.92549
525 -25 0.0519046 0.0826061 0.167296 0.102828 0.184754 0.439122 2.04998
550 -25 0.057506 0.072897 0.134632 0.0905859 0.149908 0.375907 2.1896
575 -25 0.0635439 0.0653985 0.111463 0.0811449 0.125066 0.329238 2.34376
600 -25 0.0700382 0.0595215 0.0945002 0.0737223 0.106781 0.293711 2.51201
625 -25 0.0769984 0.0547661 0.0817459 0.0677581 0.0929414 0.26606 2.69427
650 -25 0.0844301 0.0508996 0.0719378 0.0628989 0.0822103 0.244015 2.88977
675 -25 0.0923356 0.0476637 0.0642377 0.0588423 0.0737321 0.226167 3.09925
700 -25 0.100712 0.0449464 0.0580788 0.0554354 0.0669102 0.211484 3.32308
725 -25 0.109569 0.042667 0.0530733 0.0525669 0.0613307 0.199259 3.56156
750 -25 0.1189 0.0406876 0.0489585 0.0501031 0.0567179 0.188963 3.81544
775 -25 0.128713 0.038996 0.0455395 0.0479822 0.0528614 0.18021 4.08506
800 -25 0.139023 0.0375204 0.0426637 0.0461461 0.0495952 0.172773 4.37151
850 -25 0.161217 0.0351419 0.0381467 0.0431855 0.0444026 0.160783 4.99738
900 -25 0.186017 0.0332922 0.0348092 0.0409199 0.0405159 0.1518 5.69859
950 -25 0.214602 0.0318779 0.0322817 0.039198 0.0375412 0.145058 6.48032
100 0 0.0554557 1752.07 1713.02 2084.98 1943.94 6413.58 0.0841544
125 0 0.049148 762.614 816.074 922.547 926.706 2898.82 0.105556
150 0 0.0508087 327.504 368.509 397.194 420.243 1263.26 0.139896
175 0 0.0528671 138.046 160.744 167.111 183.739 535.452 0.187141
200 0 0.0550709 57.2448 68.867 69.0823 78.6491 222.877 0.247056
225 0 0.0575598 23.4878 29.4919 28.2752 33.553 92.2945 0.319838
250 0 0.0602798 9.63091 12.9359 11.5925 14.6208 38.7258 0.406731
275 0 0.0633816 4.03412 6.04993 4.87388 6.77194 17.0236 0.510492
300 0 0.0669791 1.79801 3.15721 2.19131 3.49133 8.21431 0.636192
325 0 0.0710804 0.894903 1.86266 1.10165 2.03588 4.47783 0.78658
350 0 0.0756611 0.507531 1.20769 0.629919 1.30927 2.73751 0.954308
375 0 0.0806173 0.323878 0.828259 0.404096 0.894542 1.82788 1.12429
400 0 0.0859081 0.227011 0.58777 0.283857 0.634788 1.3001 1.28473
425 0 0.0915379 0.170696 0.42812 0.213478 0.463684 0.970537 1.43265
450 0 0.0974978 0.135202 0.31987 0.16897 0.348105 0.753918 1.57184
475 0 0.103834 0.111506 0.245413 0.139141 0.268658 0.606198 1.70883
500 0 0.110583 0.0947719 0.193387 0.11807 0.213095 0.502325 1.84888
525 0 0.117791 0.0825524 0.15631 0.102658 0.173354 0.427161 1.99552
550 0 0.125482 0.0732453 0.129339 0.0909602 0.144359 0.371214 2.15146
575 0 0.13367 0.0660207 0.109299 0.0818567 0.122739 0.328526 2.31796
600 0 0.142436 0.0603173 0.0940887 0.0746622 0.106258 0.295393 2.49598
625 0 0.151738 0.0556597 0.0823261 0.0688136 0.0934523 0.269023 2.68604
650 0 0.161607 0.0518469 0.0730796 0.0640193 0.0833007 0.247774 2.88922
675 0 0.172029 0.0486368 0.0656898 0.0600045 0.0751512 0.230359 3.10536
700 0 0.183079 0.0459618 0.0596902 0.0566333 0.0685048 0.215863 3.33591
725 0 0.194701 0.0436711 0.0547629 0.0537556 0.0630174 0.203741 3.58096
750 0 0.206926 0.0416984 0.0506683 0.0512943 0.0584323 0.193493 3.8414
775 0 0.219749 0.0400052 0.0472441 0.049169 0.0545774 0.184708 4.11756
800 0 0.233256 0.0385327 0.04434 0.047337 0.0512886 0.177197 4.4108
850 0 0.262316 0.0361379 0.039737 0.0443573 0.0460287 0.165121 5.04979
900 0 0.294878 0.0342702 0.0363076 0.0420689 0.0420567 0.155997 5.76335
950 0 0.332459 0.0328214 0.0336853 0.0403156 0.0390004 0.149149 6.5568
100 25 0.212096 597.269 463.091 700.312 539.046 1974.89 0.0942198
125 25 0.213877 283.454 235.834 338.553 274.132 964.364 0.112371
150 25 0.219082 133.725 114.501 159.892 133.836 457.01 0.143136
175 25 0.225675 62.0403 54.0207 73.9476 63.4112 211.454 0.186763
200 25 0.233087 28.3384 25.1684 33.6485 29.5694 96.4232 0.242769
225 25 0.240995 12.7952 11.8059 15.1603 13.8254 43.8783 0.310738
250 25 0.249421 5.76957 5.74219 6.84725 6.67214 20.3542 0.39065
275 25 0.258451 2.65843 3.01355 3.17847 3.45837 9.95236 0.483523
300 25 0.268141 1.30528 1.75741 1.5781 1.98677 5.32575 0.592823
325 25 0.278458 0.708513 1.13718 0.867307 1.26795 3.16147 0.721219
350 25 0.289319 0.430649 0.794942 0.532129 0.87762 2.07088 0.866431
375 25 0.300688 0.288969 0.583712 0.359188 0.640691 1.46379 1.02121
400 25 0.312514 0.209782 0.441939 0.261544 0.483948 1.09398 1.17858
425 25 0.324818 0.161705 0.34184 0.201794 0.374501 0.852153 1.33405
450 25 0.337627 0.130486 0.269368 0.162743 0.29582 0.685918 1.48724
475 25 0.350993 0.108995 0.216116 0.135825 0.238193 0.567401 1.63991
500 25 0.364953 0.0936355 0.176557 0.116506 0.195436 0.480591 1.7949
525 25 0.379585 0.0821288 0.146858 0.102051 0.163332 0.415525 1.95494
550 25 0.394931 0.0733123 0.124265 0.0909605 0.138879 0.36563 2.12221
575 25 0.411003 0.0664285 0.106853 0.0822698 0.11999 0.326732 2.29842
600 25 0.427786 0.0608859 0.0932396 0.0753006 0.105168 0.295817 2.48527
625 25 0.445508 0.0563635 0.0824593 0.069617 0.093393 0.270853 2.68328
650 25 0.463985 0.0526341 0.0738047 0.0649285 0.0838795 0.250472 2.8936
675 25 0.483309 0.0495044 0.0667764 0.0609961 0.0761205 0.233591 3.11692
700 25 0.503462 0.0468477 0.0609899 0.0576574 0.0697091 0.219485 3.35456
725 25 0.524582 0.0445916 0.0561888 0.0548246 0.0643698 0.207541 3.60637
750 25 0.546579 0.0426341 0.052158 0.0523787 0.0598639 0.197386 3.87409
775 25 0.569521 0.0409629 0.0487527 0.0502774 0.0560425 0.188703 4.15736
800 25 0.593447 0.0394863 0.045857 0.0484427 0.0527785 0.181222 4.45726
850 25 0.6444 0.0370721 0.0412105 0.0454521 0.0474945 0.169088 5.1102
900 25 0.700959 0.0351991 0.03771 0.0431502 0.0434701 0.159914 5.83708
950 25 0.76467 0.0337421 0.0350115 0.0413866 0.040349 0.152922 6.64267
100 50 0.77511 241.417 154.064 278.406 183.471 731.951 0.108455
125 50 0.776375 122.567 83.6588 144.891 99.0962 382.735 0.123764
150 50 0.790292 62.5091 43.493 74.0023 51.7973 195.236 0.151485
175 50 0.809889 31.448 22.0782 37.0822 26.4331 97.6417 0.192288
200 50 0.83325 15.5667 11.1378 18.2863 13.3553 48.2792 0.245652
225 50 0.858088 7.60239 5.71144 8.92252 6.82105 23.9164 0.310608
250 50 0.884173 3.70348 3.07137 4.36453 3.63127 12.1386 0.386079
275 50 0.911509 1.84946 1.78728 2.20109 2.08165 6.51541 0.472705
300 50 0.939862 0.984886 1.14182 1.18761 1.30807 3.79429 0.573472
325 50 0.969202 0.575741 0.793349 0.702945 0.895735 2.41895 0.690982
350 50 0.999447 0.370634 0.586349 0.456962 0.654832 1.67419 0.824236
375 50 1.03062 0.259607 0.451397 0.321989 0.50065 1.23592 0.969156
400 50 1.06267 0.194368 0.356713 0.241845 0.394219 0.957018 1.12113
425 50 1.09566 0.153207 0.287129 0.190873 0.316974 0.768039 1.27655
450 50 1.12961 0.125717 0.234549 0.156552 0.259108 0.634071 1.43419
475 50 1.16473 0.106374 0.194225 0.132346 0.214987 0.535504 1.59408
500 50 1.20095 0.0921962 0.16303 0.114588 0.180962 0.461387 1.75736
525 50 1.23839 0.0814856 0.138677 0.101123 0.154453 0.404329 1.9262
550 50 1.27713 0.0732024 0.119517 0.0907031 0.133586 0.359579 2.10206
575 50 1.31721 0.0666263 0.104306 0.0824127 0.117012 0.324011 2.28666
600 50 1.35859 0.0613248 0.0921197 0.0757433 0.103714 0.29528 2.48103
625 50 1.40166 0.0569394 0.0822582 0.0702389 0.092904 0.271793 2.6868
650 50 1.44611 0.0533253 0.074208 0.0656893 0.08405 0.252331 2.90448
675 50 1.49211 0.0502561 0.0675627 0.0618326 0.0767142 0.236103 3.1352
700 50 1.5397 0.0476517 0.0620322 0.0585659 0.0705933 0.222418 3.38006
725 50 1.58885 0.0454305 0.0573808 0.0557738 0.0654289 0.210743 3.63929
750 50 1.63984 0.0435004 0.0534483 0.053365 0.0610453 0.200788 3.91415
775 50 1.69206 0.0418361 0.0500935 0.0512803 0.0572943 0.192224 4.20447
800 50 1.74701 0.0403763 0.0472173 0.0494679 0.054064 0.184755 4.51171
850 50 1.86185 0.037975 0.0425673 0.046485 0.0488062 0.172687 5.1786
900 50 1.98616 0.0360964 0.0390204 0.0441812 0.0447599 0.163467 5.91937
950 50 2.12244 0.0346248 0.0362597 0.0424051 0.0415952 0.1564 6.73757
125 75 2.40317 59.7226 34.6673 69.9419 41.6976 173.911 0.139393
175 75 2.48421 17.4764 10.4196 20.4584 12.6483 50.6598 0.20219
200 75 2.54761 9.24322 5.66939 10.7876 6.8884 26.9056 0.252815
225 75 2.61666 4.80957 3.16648 5.62006 3.82502 14.3694 0.314433
250 75 2.68949 2.49971 1.86671 2.94085 2.22671 7.89669 0.385792
275 75 2.76502 1.33945 1.18548 1.59431 1.39075 4.59209 0.467881
300 75 2.84227 0.766137 0.814234 0.92425 0.939094 2.86868 0.56368
325 75 2.92252 0.477056 0.598036 0.582526 0.680024 1.94001 0.674963
350 75 3.00404 0.322968 0.461509 0.397779 0.519099 1.40507 0.801159
375 75 3.08784 0.234671 0.368241 0.29071 0.411093 1.07432 0.939648
400 75 3.17348 0.180553 0.300446 0.224369 0.333904 0.855749 1.08725
425 75 3.26123 0.145247 0.24899 0.180704 0.276125 0.703144 1.24139
450 75 3.35121 0.121002 0.208911 0.150509 0.231574 0.591992 1.40045
475 75 3.44353 0.103582 0.177203 0.128729 0.196575 0.508476 1.56418
500 75 3.53831 0.0906203 0.151899 0.112473 0.168795 0.444146 1.73321
525 75 3.63538 0.0806991 0.131564 0.100018 0.146527 0.393605 1.90846
550 75 3.73575 0.0729048 0.115122 0.0901979 0.128558 0.353305 2.09128
575 75 3.83862 0.0666957 0.101771 0.0823745 0.113967 0.320711 2.28292
600 75 3.94414 0.0616161 0.090842 0.0759937 0.101996 0.294029 2.48478
625 75 4.05316 0.0574188 0.0818334 0.0707162 0.0921194 0.271936 2.69764
650 75 4.16502 0.0539031 0.0743635 0.0663043 0.0839028 0.253515 2.92283
675 75 4.28007 0.0509191 0.0681103 0.0625521 0.0770025 0.237973 3.16097
700 75 4.39838 0.0483867 0.0628419 0.0593725 0.0711845 0.224774 3.41313
725 75 4.51982 0.0462033 0.0583704 0.0566391 0.0662355 0.213424 3.67983
750 75 4.64524 0.0443169 0.0545542 0.0542667 0.0619962 0.203695 3.96196
775 75 4.77399 0.0426614 0.0512698 0.0522065 0.0583345 0.195276 4.25978
800 75 4.90646 0.0412284 0.0484319 0.0504204 0.0551631 0.187942 4.57424
850 75 5.18322 0.0388373 0.0438062 0.0474595 0.0499667 0.175952 5.25578
900 75 5.47817 0.0369651 0.0402349 0.0451658 0.0459234 0.166709 6.01028
950 75 5.79506 0.0354855 0.0374299 0.0433775 0.0427366 0.159592 6.84196
125 100 6.51371 32.0393 16.2265 37.1265 19.7677 87.9328 0.159354
175 100 6.68151 10.4189 5.51276 12.146 6.74687 28.7735 0.216061
200 100 6.83114 5.80972 3.22242 6.76386 3.93987 16.2718 0.263178
225 100 7.00002 3.18617 1.94836 3.72262 2.36289 9.2892 0.320746
250 100 7.17996 1.75478 1.24471 2.06863 1.48792 5.47727 0.388186
275 100 7.36629 1.00283 0.849471 1.19695 0.99813 3.40526 0.467007
300 100 7.55879 0.611453 0.618311 0.739324 0.714629 2.26188 0.559552
325 100 7.75619 0.402291 0.474645 0.491744 0.541165 1.60664 0.667113
350 100 7.95743 0.284336 0.379117 0.350298 0.427813 1.20899 0.789037
375 100 8.16305 0.213435 0.311292 0.264294 0.348639 0.952163 0.923368
400 100 8.37314 0.168293 0.260427 0.208901 0.290226 0.776384 1.06804
425 100 8.5879 0.137882 0.220824 0.171328 0.245381 0.650569 1.22096
450 100 8.80752 0.116493 0.189187 0.144697 0.209959 0.556589 1.38089
475 100 9.03221 0.100805 0.163543 0.125099 0.181492 0.484765 1.54742
500 100 9.2605 0.0889734 0.142575 0.110263 0.158355 0.428369 1.72061
525 100 9.49637 0.0797942 0.125341 0.0987212 0.139421 0.383374 1.90125
550 100 9.73881 0.072496 0.111105 0.0895568 0.123811 0.346906 2.09024
575 100 9.98584 0.0666366 0.0993116 0.0821822 0.110901 0.317058 2.28845
600 100 10.2389 0.0618048 0.0894823 0.0761084 0.100144 0.29229 2.49697
625 100 10.4983 0.057779 0.0812573 0.0710487 0.0911153 0.27162 2.71704
650 100 10.7641 0.0543923 0.0743297 0.0667932 0.0835003 0.254175 2.94953
675 100 11.0364 0.0515173 0.0684638 0.0631756 0.0770455 0.239303 3.19512
700 100 11.3156 0.0490554 0.0634662 0.0600897 0.0715428 0.226596 3.45462
725 100 11.6017 0.0469209 0.059183 0.0574091 0.0668178 0.215652 3.72881
750 100 11.895 0.0450627 0.0554951 0.0550891 0.0627383 0.206215 4.01854
775 100 12.1957 0.0434529 0.0522953 0.0530798 0.0591891 0.197957 4.32371
800 100 12.5024 0.0420165 0.0495079 0.0512961 0.0560928 0.190757 4.64585
850 100 13.1433 0.0396662 0.0449257 0.0483809 0.0509769 0.178911 5.34201
900 100 13.8202 0.0377974 0.0413503 0.0460977 0.0469625 0.169671 6.11065
950 100 14.5387 0.0363126 0.0385122 0.0443041 0.0437677 0.162515 6.95618
150 125 15.8825 11.0572 5.1993 12.8479 6.38043 29.3137 0.202748
175 125 16.1075 6.55204 3.2015 7.62477 3.92993 17.5558 0.233864
200 125 16.4225 3.8107 2.00303 4.44081 2.44894 10.4941 0.276588
225 125 16.79 2.18907 1.30073 2.56659 1.57375 6.36041 0.329825
250 125 17.1874 1.27388 0.889692 1.50881 1.0601 3.99234 0.393763
275 125 17.6019 0.772822 0.644014 0.926593 0.754616 2.63077 0.470266
300 125 18.0323 0.49896 0.491192 0.605256 0.566751 1.84053 0.560756
325 125 18.4702 0.344311 0.390901 0.421717 0.445321 1.36294 0.665961
350 125 18.9214 0.252799 0.321196 0.311604 0.362441 1.05937 0.785219
375 125 19.3802 0.195312 0.269966 0.241742 0.302412 0.855566 0.917051
400 125 19.8486 0.157365 0.230539 0.195178 0.256965 0.71193 1.05988
425 125 20.3268 0.131167 0.199123 0.162718 0.221224 0.606336 1.21231
450 125 20.815 0.112202 0.173509 0.139176 0.192421 0.526276 1.37327
475 125 21.3135 0.0981202 0.152325 0.121567 0.168821 0.463846 1.54227
500 125 21.8219 0.0873285 0.134671 0.108046 0.149294 0.413989 1.71924
525 125 22.3433 0.0788444 0.119877 0.0973782 0.133016 0.373695 1.90471
550 125 22.8751 0.072042 0.107442 0.0888391 0.11937 0.340614 2.09918
575 125 23.4176 0.0665067 0.0969681 0.0818805 0.107903 0.313186 2.30364
600 125 23.9743 0.0619186 0.0880999 0.076115 0.0981919 0.290223 2.5189
625 125 24.5424 0.0580673 0.0805711 0.0712764 0.0899442 0.270838 2.74598
650 125 25.1233 0.0548369 0.0741545 0.06721 0.0829151 0.254373 2.9856
675 125 25.7171 0.0520468 0.0686638 0.0637098 0.0768933 0.240223 3.23853
700 125 26.3244 0.0496605 0.063932 0.0607114 0.0717042 0.22807 3.50562
725 125 26.9455 0.0475876 0.0598414 0.0581146 0.067211 0.217503 3.78719
750 125 27.5749 0.0457765 0.0562823 0.0558589 0.0632928 0.208328 4.08455
775 125 28.2258 0.044196 0.0531788 0.0538818 0.0598723 0.200282 4.39742
800 125 28.8948 0.0427898 0.0504531 0.0521332 0.0568617 0.19324 4.72728
850 125 30.2706 0.0404584 0.045932 0.0492487 0.0518497 0.18153 5.43811
900 125 31.7157 0.0386017 0.0423678 0.0469781 0.0478806 0.172353 6.22106
950 125 33.2341 0.0371236 0.0395041 0.0451886 0.0446875 0.165143 7.08035
